Effect of the Spectrum on the Haloid Salts of Silver .
241 ) " On the Effect of the Spectrum on the Haloid Salts of Silver .
' " By Captain W. de W. Abney , C.B. , R.E. , D.C.L. , F.R.S. , and G. S. Edwards , C.E. Received November 26 , \#151 ; Read December 12 , 1889 .
In 1881 one of us gave , in the 'Proceedings of the Royal Society , ' a paper with the same title as the above .
Since then , however , he has been able to work out a more exact means of measuring the effect of the spectrum on these salts of silver , and it is our desire now to lay the improved results before the Society .
In January , 1887 , one of us read a paper before the Photographic Society of Great Britain , " On the mode of measuring Densities of Photographic Deposits , with some remarks on Sensitometers , " and in it alluded to the possibility of measuring the relative sensitiveness of a photographic plate to the different parts of the spectrum .
The plan there indicated , with some instrumental improvements , has been employed in the present instance .
The method employed consists in throwing an image of the photographed spectrum on a white screen and measuring the density of the photograph at different points .
As the spectrum of sun light abounds in dark Fraunhofer lines , it was evident that the sun would be a very inconvenient source of light by which to form the spectrum .
It was also inconvenient on account of the variation in intensity at different times of the year and day in its different parts .
After trials of various sources of light we came to the conclusion that the most practical source to employ was the light from gas , burnt in an Argand burner .
A somewhat whiter light would have been better , perhaps , since the ultra-violet rays would have been stronger ; but it appeared that , taking all things into consideration , the convenience of gas light more than counterbalanced its disadvantages .
We may mention that the crater of the positive pole of the electric light was used in some instances ; but , as certain minima of action on some of the salts of silver experimented with lay at parts of the spectrum where bright carbon bands were to be found , the main researches were carried out by the aid of gas light .
The apparatus employed for photographing the spectrum was that employed in the previous research already alluded to .
The two prisms employed were of medium dense white flint , each having an angle of 62 " .
The collimating lens was of the same material , and the photographic lens was a rapid rectilinear doublet by Dalmeyer , of 16-inch focal length .
In some cases one of the lenses of the doublet was dismounted , and the other used as a single lens , giving a focal length of about 30 inches .
An image of the gas flame was thrown 250 Capt. W. de W. Abney and Mr. G. S. Edwards .
on the slit of the collimator , producing a bright image when the slit had a width of of an inch- The bottom half of the slifc was closed by a shutter when the gas spectrum was photographed .
To know the locality of the part of the gas spectrum impressed , a second spectrum of the electric arc was photographed below the gas spectrum , lithium and sodium being volatilised , to give a sufficient number of fiducial lines .
The plate was then withdrawn from the slide and placed in an apparatus by which a series of small square portions of the plate lying parallel and below the last-named spectrum could be exposed at will .
The exposures of this series of squares varied between 3\#163 ; seconds and 5 minutes , generally being 3^ , 15 , 30 , 60 , 90 , 120 , 180 , 240 , and 300 seconds .
The exposure was made to the light from an Argand paraffin lamp placed at 6 feet from the plate .
When the height of the flame was kept constant , no practical difference in illumination was found , and no variation was found during a series of exposures if the lamp were allowed to attain a constant temperature by burning ten minutes .
The plate thus impressed with the various images was developed in the ordinary manner with the pioper developer .
If a gelatine plate were used , ferrous oxalate was usually employed ; whilst acidified sulphate of iron was employed if a collodion wet plate were being experimented with .
It has not been thought worth while to record all the measurements of the various plates , but a selection has been made of the most important results .
It may be remarked that only 5 per cent , addition of bromo-iodide of silver to a bromide of silver emulsion sufficed to shift the place of maximum sensitiveness of the plate from the blue towards the green , as shown in the diagram .
After development the plates were fixed as usua and dried , and were then ready for measuring .
The following diagram shows the apparatus employed for the measurement , the descrip ion of which is taken from a previous paper by one of us .
A is the source of light\#151 ; gas , paraffin , or other lamp ; B is a lens of about 9 inches focus , used as a condenser ; C is a double frame tor carrying the negative , 1ST , which has an upward and side motion , so that any part of the negative may be brought in front of the condenser ; D is a lens on a stand , used to focus the negative on t e screen E , which is black except one small square , as shown , where the image of the part to be measured is thrown ; E is one of a series of diaphragms used with D for the purpose of sharpening the image and reducing its brightness when required ; .
H is the rod used to cast the shadow on the white patch ; G is a flat mirror reflecting a beam also on E ; K is the rotating apparatus placed in the path of the light reflected from G , to diminish it at pleasure ; M is the small electromotor which drives K. The rod H is so placed that the shadows Efect of the Spectrum on the Haloid Salts of Silver .
251 cast by the beam from G , and coming through the negative , just touch , and the two are equalised in brightness by means of opening more or less the rotating sectors K. The negative to be measured was marked with a scale of inches , and , in cases of sudden change of density , to less .
It was then placed in the measuring apparatus and measurements commenced .
When the square patches were measured , a thickish rod was employed , but for the photographed spectrum a knitting needle , ^ of an inch thick , was substituted .
The opacities of the different parts of the film were calculated from where the negative showed " no deposit , " and the opening of the sectors when the direct and reflected light balanced was taken as the standard .
The required opening of the sectors showed but little variation for any of the photographs .
The scale of density corresponding to different times of exposure was plotted from the readings of squares , and the readings of the different parts of the photographed spectra were applied to the curve so derived , and the density corresponding to the times of exposure tabulated .
From the photographed spectrum of the arc the positions of the different measured densities were known and the curve with the reference Fraunhofer lines plotted in the usual manner .
From these curves the curves for the normal or wave-length spectrum were calculated , and it is these curves which are shown in the accompanying figures .
Reverting to the paper to which we have referred ( ' Roy .
Soc. Proc. , ' No. 217 , 1881 ) , it will be seen that the figures therein shown differ from those here given .
This is caused by the fact that the former curves were only eyp estimations of density , whilst the latter are the comparative sensitivenesses derived from measured densities .
252 Capt. W. de W. Abney and Mr. G. S. Edwards .
That the former are not in great error will be seen by comparing the place of maximum density of the former with the place of maximum sensitiveness of the latter .
It may be well to remark here on one point to which objection might be taken in the results .
It has been assumed in making the scale that length of exposure is equivalent to the intensity of the light .
This is not a hasty assumption , but has been carefully tested .
When the exposure is but the minute fraction of a second , then the substitution of length of exposure for intensity does not apparently hold good ; but , when the exposures are such as are given to the scale , the substitution is perfectly legitimate .
In the following tables the curves of the simple haloid salts of silver are given , as well as mixtures of two or more , and also double salts .
Where double salts of silver are shown they were prepared by mixing the alkaline salts in proper equivalent proportions , and then emulsifying in gelatine or collodion by adding the requisite amount of silver nitrate to them .
Where simple mixtures are shown , emulsions containing the proper equivalent amount of the silver salts were prepared and subsequently mixed .
It has been deemed desirable to give the values for the haloid salts when stained with certain dyes , such as are usually employed in rendering photographic plates what is termed isochromatic .
Attention is called to the fact that a mixture of solutions of two dyes does not render the salts of the same sensitiveness to different parts of the spectrum as do the two dyes if applied separately , washing taking place between the application of each .
For erythrosin Mailman 's well known formula was used to obtain the coloured solution .
The erythrosin was obtained from Germany , and showed only traces of fluorescence .
The cyanin was obtained from Messrs. Hopkin and Williams , and appears to be made after Greville Williams ' formula .
When cyanin was employed , 5 grains was dissolved in 1 oz. of alcohol , and water added to make up to 2 ozs .
This solution was poured over the plate , which was then allowed to dry .
The plate was then washed with equal parts of spirit and water , and finally with water , and then exposed to the spectrum .
Similar results were obtained whether the film was dry or moist .
[ In all the tables except VII , VIII , IX , X , XV , and XVI , the following are the points on the scale numbers of the principal Fraunhofer lines : H , 13'8 ; G , 10*9 ; Li , 9 ; F , 7*6 ; E , 6*0 ; D , 4'3 ; Li , 2*8 .
In Tables VIII and IX the following are to be substituted : H , 14*0 ; G , 11*0 ; Li , 9*0 ; F , 7*7 ; E , 6*2 ; D , 4*6 ; Li , 3*1 .
In Tables VII , X , XV , and XVI the following are to be substituted : H , 6*7 ; G , 9 ; Li , 10'7 ; F , 12*1 ; E , 13 ; D , 14*3 ; Li , lo 7 .
\#151 ; Feb. 10 , 1890 .
] Effect of the Spectrum on the Haloid Salts of Silver .
253 Table I. AgBr .
( Collodion plate .
) See Fig. 1 ( p. 269 ) .
Scale number .
Mean sector reading .
Opacity .
Relative sensi- tiveness .
Reduced to maximum of 100 .
Ordinate of curve to wavelength scale .
Scale .
Exposure .
Sector reading .
Bare mins .
secs .
glass 79 8 75 4 2 1 Of 5 0 5 82 56 23 16 8 4 0 8| 34 !
44 !
42 21 , , 3 0 9 9 25 54 63 32 33 2 0 13 9i 15 64 104 53 1 30 19 9 !
12 67 140 71 , .
1 0 26 10 8 !
70 !
188 96 92 30 43 !
10 !
8 71 197 100 lOf . . . . . . .
, 100 15 59 !
11 8 71 197 100 99 Hi 8i 71 192 98 97 7 66 !
12 10 69 165 85 87 12i 11 68 150 76 13 12 !
66 !
134 67 68 13| 15 64 104 53 13f . . . .
t # 43 14 20 59 80 41 14i 24 55 73 37 .
14 !
28 51 55 28 14f 32 !
46 !
45 23 15 37 42 39 20 20 15 !
42 37 32 16 15 !
47 32 26 13 15| 51 28 21 11 16 55 24 17 9 9 16 !
61 18 12 6 17 65 14 8 4 4 17 !
70 9 4 2 18 18 !
73 74 !
6 4 !
3 2 1 !
1 li 19 76 3 1 0 !
1 H is 13 8 ; G is 10-9 ; Li is 9 .
254 Capt. W. de W. Abney and Mr. G- .
S. Edwards .
Table II .
AgCl .
( Gelatine plate .
) See Fig. 2 .
Scale number .
Mean sector reading .
Opacity .
Relative sensi- tiveness .
Reduced to maximum of 100 .
Ordinate of curve to wavelength scale .
Scale .
Exposure .
Sector reading .
Bare mins .
secs .
glass 73 !
10 ! . . .
, . . . .
i 15 72f 11 73 !
, , . . . .
6 30 66 !
HI 72 1 !
17 20 19 1 0 43 !
12 66 H 30 35 34 1 30 23 12 !
60 !
13 37 !
44 43 2 0 11 13 54 !
19 45 53 52 13| 51 22 !
50 59 58 13 !
44 !
29 58 !
69 69 13f 39 33 !
66 78 78 14 33 40 !
75 88 88 144 29 44 !
81 95 95 14 !
28 44 !
82 !
97 97 14f 26 46 !
85 !
100 100 15 29 43 !
81 95 95 154 33 39 !
75 88 88 15 !
39 33 !
66 78 79 15f 45 !
28 57 67 67 164 48 24 !
54 64 65 16 53 19 !
47 55 57 16 !
56 16 !
43 50 51 17 59 !
14 39 46 47 17 !
67 5 !
28 33 34 18 72 l !
17 20 20 18 !
73 ! . . . . . .
10 19 . . . . . .
* * 5 Effect of the Spectrum on the Haloid Salts of Silver .
255 Table III .
Ag-JBrL ( Gelatine plate .
) See Fig. 3 .
Scale number .
Mean sector reading .
Opacity .
Relative sensitiveness .
Reduced to maximum of 100 .
Ordinate of curve to wavelength scale .
Scale .
Exposure .
Sector reading .
Bare mins .
secs .
glass 13 75 75 0 0 6 0 17 13 !
69 6 3 3 !
3 !
5 0 15 14 58 17 7 8 8 4 0 16 m 44 31 16 19 19 3 0 18 15 35 !
39 !
28 33 33 2 o ; 19 15 !
28 47 48 57 57 1 !
0 21 16 24 51 64 76 76 1 0 25 16 !
23 52 71 84 84 30 35 17 22 55 77 91 91 15 46 18 21 54 85 100 100 10 51 19 21 54 85 100 100 5 641 20 22 53 77 91 91 21 25 50 60 71 71 1 22 28 47 48 57 57 !
23 30 !
44 ! .
40 47 47 i 24 } 34 41 31 37 .
37 : 25 38 37 24 28 28 1 26 42 33 18 21 21 i 27 47 28 13 15 15 28 52 23 10 12 12 29 60 15 6 7 7 29 !
62 13 5 !
6 !
6 !
it 30 65 !
9 !
4 4f 4f 30| !
67 8 3 !
4 4 i 31 70 5 2 2 !
2 !
31 !
71 4 l !
If If 32 i 72 !
2 1 1 1 i VOL. XLVI1 .
u 256 Capt. W. de W. Abney and Mr. G. S. Edwards .
Table IY .
AgvBr .
Cl. ( Gelatine plate .
) See Fig. 4 .
Scale number .
Mean sector reading .
Opacity .
Relative sensi- tiveness .
Reduced to maximum of 100 .
Ordinate of curve to wavelength scale .
Scale .
Exposure .
Sector reading .
Bare mins .
glass 72 9 71 i 28 23 23 5 17 10 63 9 49 41 41 ; 4 25 10i- 44 28 84 70 70 3 41 11 29 43 112 94 94 2 57 in 25 47 120 100 ioo ; n 65 12 29 43 112 94 95 i 71 12^ 30 42 110 91 91 13 37 i 35 W 81 \#166 ; 81 | 13| 47 !
25 79 66 66 14 58 j 14 58 48 48 14J 68 1 4 38 32 32 15 71 | 1 !
28 23 23 !
[ Effect of the Spectrum on the Haloid Salts of Silver .
257 Table Y. | | Gelatine plate .
See Fig. 5 .
Scale number .
Mean sector reading .
Opacity .
Kelative sensi- tiveness .
Reduced to maximum of 100 .
Ordinate of curve to wavelength scale .
Scale , Exposure .
Sector reading .
Bare mins .
secs .
glass 75 3 73 2 3 2 . .
4 0 9 66* 8* 62 4 0-75 3 0 9 4 63 12 9* 6 5-5 2 0 12 5 55 20 15* 10 9 1 35 14* 6 52 23 17* 12 11 1 0 22 6* 46 29 22* 15 . .
30 37* 7 44 31 24 16 15 15 56 7* 38 37 29* 17 16 7 66 7| 35 40 33 , , .
, 3 73 8 29 45 42* 26* 27 If 71* 8* 22 53 60 42* 8* 18 57 75 53* 54 0 75 9 13 62 108 77* 9* 10* 64* 140 94 10 10 65 150 100 100 10* 11 63* 132 88 95 10| 13* 61* 104 70 71 11 14* 60* 95 76 63 lli 17 58 80 50 54 12 18 57 75 50 51 12* 18 !
56* 67 46 13 20* 54* 65 43 44 13* 22* 52* 58 39 40 14 28* 46* 43 29 31 14* 34 41 34 22* 15 43 32 25 16* 19 15* 52 23 17* 12 16 56* 18* 14 9 9 17 69 6 5 3* 3 18 70 5 4* 3 3 19 74 1 1 !
1 r 2 258 Capt. W. de W. Abney and Mr. G. S. Edwards , Table VI .
* } ^e^a^ne P^a^e- See Fig. 6 .
Scale number .
Mean sector reading .
Opacity .
Relative sensi- tiveness .
Reduced to maximum of 100 .
Ordinate of curve to wave- j length j scale .
Scale .
j Exposure .
Sector reading .
Bare mins .
secs .
glass 79 2 78 i i .
, 4 0 9 !
3 73 !
5 !
l !
24 2 3 0 11 3i 67 12 4 5 !
, .
2 0 12 4 63 16 5 7 6 1 30 15 4 !
60 !
18 !
6 8 ! . .
1 0 18 !
5 56 23 7 !
10 !
9 30 29 5 !
53 !
25 !
8 11 . .
15 42 6 50 29 9 !
13 12 7 5 59 6 !
49 !
29 !
9 !
13 . .
5 63 !
7 50 29 9 !
13 13 3 70 47 !
31 !
11 15 15 0- 79 8 38 41 17 !
24 !
23 8 !
29 50 30 41 25 54 37 !
52 51 9 18 !
50 !
62 87 86 9 !
17 62 72 100 100 10 17 !
61 !
69 96 96 10i 20 !
58 !
52 72 73 11 23 56 37 51 56 iii 26 53 36 50 12 27 52 33 !
46 !
48 12 !
28 51 32 44 !
13 31 48 26 36 38 13 !
33 46 23 32 14 39 40 16 !
23 24 14 !
44 35 13 18 15 52 27 8 !
12 13 !
15 !
59 20 6 !
9 16 64 15 5 7 7 16| 68 !
10 !
3 !
5 17 70 9 3 4 4 18 72 !
6 !
2 2f 2 !
19 1 76 3 1 1 !
l !
Effect of the Spectrum on the Haloid Salts of Silver .
259 Table VII .
I AgCl 1 Qe]a^ne plate .
See Fig. 7 .
iAgl J Scale number .
Mean sector reading .
Opacity .
Relative .
sensi- tiveness .
Reduced to maximum of 100 .
Ordinate of curve to wavelength scale .
Scale .
Exposure .
Sector reading .
Bare mins .
secs .
glass 77 !
4 72 !
5 25 10 4 0 18 4 !
69 7 !
38 15 3 0 26 5 68 9 !
41 16 2 !
0 35 6 59 !
18 67 26 2 0 40 7 52 25 !
88 34 1 !
0 52 8 46 31 !
104 40 1 0 66 9 43 34 !
112 43 30 69 9| 38 !
39 !
127 49 15 76 10 34 43 !
145 56 0 77 !
10 !
32 45 !
155 60 10 !
29 48 !
170 65 io| 40 !
37 118 70 1 11 54 23 !
83 32 iu 62 15 !
60 23 12 60 17 !
66 25 12 !
51 !
26 90 35 13 42 35 !
115 44 13 !
33 44 !
150 58 14 23 !
54 199 77 14 !
17 60 !
248 95 15 16 61 !
260 100 15 !
19 58 !
232 89 16 22 !
55 !
212 82 16| 24 53 !
195 75 17 28 49 !
175 68 17 !
37 40 !
133 52 18 42 35 !
116 45 18 !
56 !
21 76 29 19 65 12 !
51 20 20 74 !
3 17 7 260 Capt. W. de W. Abney and Mr. G. S. Edwards .
Table VIII .
f^1 j- Gelatine plate .
See Fig. 8 .
Scale number . .
Mean sector reading .
Opacity .
Relative sensi- tiveness .
Reduced to maximum of 100 .
Ordinate of curve to wavelength scale .
Scale .
Exposure .
Sector reading .
Bare 1 glass 75 sec. 8 694 54 17 9 8 380 9 Si 47 28 45 23 22 300 104 8| 36 39 60 31 30 240 12 9 20 55 94 49 48 180 22 94 124 624 118 61 61 120 36 10 9 66 190 99 99 90 464 ioi , , , " 194 100 100 60 60 10 9 66 190 99 100 30 70 n 10 65 165 85 86 15 754 | 12 114 634 126 65 69 0 76 !
13 12 63 120 62 64 1 14 17 58 102 53 55 144 19 56 97 50 52 !
144 24 51 85 44 46 : 14| 27 48 78 40 41 15 35 40 62 32 33 15^ 39 36 55 29 30 154 47 28 45 23 24 15| 51 24 40 21 22 16 57 18 33 17 18 164 64 11 25 13 14 | 17 654 94 23 12 13 174 69 6 18 9 10 18 71 4 15 8 9 Effect of the Spectrum on the Haloid Salts of Silver , Table IX .
4 j\gt ; Gelatine plate .
See Fig. 9 .
Scale number , Mean sector reading .
Opacity .
Relative sensi- tiveness .
Reduced to maximum of 100 .
Ordinate of curve to wavelength scale .
Scale .
Exposure .
Sector reading .
Bare mins .
secs .
glass 8 74 73 1 7 6 6 6 0 5 8 !
72 2 8 !
7 7 5 0 6 8 !
56 !
17 !
18 14 14 4 0 7 8f 43 31 23 19 19 3 0 8 9 18 56 43 35 34 2 0 11 9 !
9 65 71 58 58 l !
0 17 10 7 67 120 99 99 1 0 30 10 !
122 100 100 30 64^ 11 *9 65 71 58 60 0 74 Hi 8 66 90 74 75 Hf 9 65 71 58 59 12 12 62 57 47 48 12| 11 63 60 49 51 13 16 58 47 39 40 13 !
20 54 40 33 34 13f 24 50 35 29 30 14 31 43 29 24 25 14 !
35 39 26 21 21 14 !
46 28 21 17 18 14f 51 23 20 16 17 15 60 14 17 14 14 15 !
66 8 14 11 11 15 !
69 5 12 10 10 16 72 2 8 1 7 7 262 Capt. W. de W. Abney and Mr. Gr .
S. Edwards .
Table X. Ag-Br stained with Erythrosin .
( Gelatine plate .
) See Fig. 10 .
Scale number Mean sector reading .
Opacity .
Relative sensi- tiveness .
Reduced to maximum of 100 .
Ordinate of curve to wavelength , scale .
Scale .
Exposure .
Sector reading .
Bare secs .
glass 110 4 100 10 i i i 120 107-5 5 80 30 4 4 *4 5 100 12 6 59 51 75 8-5 10 90 13 7 39 71 17 19 21 80 14-25 8 33 77 23 26 31 60 18 9 27 83 13 14-3 15 5 50 20-5 10 25-5 84-5 37 40-7 43-5 40 24 10* 35 75 30 33 35 30 28 11 53 57 21 23 24-5 20 35 Hi 59 51 7-5 8-5 8-5 15 43 12 44 66 14 15-4 16 10 53 12* 25 -5 84-5 37 40-7 42 5 69 13 15 95 74 82 83 0 110 13* 13 97 19 100 100 14 35 75 21 23 23 14* 86 24 6 6 6 6 15 108 2 0 5 0-5 0 3 Effect of the Spectrum on the Haloid Salts of Silver .
263 \ Table XI .
4 -A-gBi ^ j)yed with Erythrosin .
See Eig .
3 .
Scale number .
Mean sector reading .
Opacity .
Relative sensi- tiveness .
Reduced to maximum of 100 .
Ordinate of curve to wavelength scale .
Scale .
Exposure .
Sector reading , j Bare mins .
secs .
glass 4i 78 48 30 10 12* 12 2 0 17* 4i 32 46 26 32* 27 1 30 19* 4f 23* 54* 57 71 . .
1 0 24* 5 20 58 82 100 100 30 30 5* 26 52 45 56 . .
15 40* 5* 34* 43 22 27 28 10 48 5J 47 31 10* 13 . .
5 70* 6 55 23 7* 9* 9 0 78 64 61 17 6* 8 6* 64 14 6 7* 7 7 68 10 5* 7 8 69* 8* 5 64 7 8* 64* 13* 6 7* 8* 57 21 7 8f 9 45 33 11* 14* 15 9 ?
